Wavelength	S1
nm	CPS
450	890
451	1120
452	920
453	890
454	850
455	900
456	840
457	800
458	980
459	860
460	730
461	770
462	730
463	970
464	820
465	850
466	850
467	820
468	750
469	740
470	800
471	750
472	770
473	690
474	800
475	690
476	690
477	630
478	780
479	690
480	770
481	710
482	710
483	820
484	670
485	660
486	880
487	850
488	830
489	630
490	830
491	750
492	690
493	890
494	900
495	790
496	990
497	1160
498	1320
499	1510
500	1670
501	2060
502	2350
503	3120
504	3970
505	3790
506	4250
507	4890
508	5470
509	5650
510	5810
511	5250
512	5170
513	4690
514	4020
515	3830
516	3670
517	2630
518	2590
519	2230
520	2030
521	1830
522	1660
523	1790
524	1760
525	1690
526	1890
527	1970
528	2370
529	2620
530	2500
531	2950
532	3130
533	3280
534	4000
535	4650
536	4760
537	5430
538	6220
539	6950
540	7330
541	8420
542	9000
543	9580
544	10840
545	12560
546	13880
547	14800
548	16210
549	17310
550	20410
551	21600
552	22890
553	26320
554	27450
555	31110
556	33100
557	35410
558	39810
559	40770
560	43910
561	48540
562	51630
563	55110
564	59650
565	63560
566	66970
567	74340
568	77330
569	81840
570	85310
571	88480
572	95530
573	98620
574	105120
575	111630
576	114220
577	120210
578	125920
579	127300
580	137900
581	138590
582	142780
583	148600
584	151440
585	154440
586	157230
587	165490
588	167510
589	169430
590	174280
591	177110
592	180270
593	181440
594	185120
595	184190
596	188150
597	191330
598	190430
599	192530
600	193830
601	192660
602	195480
603	195930
604	193810
605	194530
606	196750
607	193310
608	194440
609	191990
610	192050
611	190320
612	189950
613	187150
614	187030
615	185000
616	183060
617	180930
618	181970
619	179930
620	176120
621	176300
622	173430
623	167730
624	166790
625	163370
626	163000
627	159200
628	153790
629	153700
630	153450
631	149960
632	145170
633	142900
634	142290
635	139010
636	137930
637	134300
638	131100
639	129040
640	126960
641	124590
642	123950
643	116940
644	118980
645	118930
646	113170
647	113030
648	110110
649	108880
650	103380
651	104580
652	100250
653	99850
654	98230
655	97030
656	93640
657	92050
658	90090
659	87630
660	85700
661	84010
662	82750
663	79010
664	76720
665	76200
666	71620
667	71520
668	70720
669	67340
670	66750
671	63930
672	61950
673	60740
674	58810
675	58200
676	54750
677	52060
678	51650
679	49000
680	47630
681	46650
682	46870
683	45080
684	41950
685	41710
686	39280
687	37730
688	36270
689	37290
690	35680
691	33920
692	33190
693	31570
694	30750
695	28090
696	28830
697	27450
698	25530
699	25340
700	24220
701	23380
702	22350
703	22000
704	21520
705	20680
706	20260
707	19970
708	18410
709	18120
710	17690
711	16400
712	15900
713	15100
714	14280
715	13950
716	13390
717	12980
718	12890
719	11950
720	12680
721	11060
722	11530
723	10100
724	10310
725	9570
726	9500
727	9050
728	8360
729	8810
730	7780
731	7830
732	7750
733	6880
734	6640
735	6860
736	7190
737	6110
738	6000
739	5530
740	5130
741	5350
742	5180
743	4980
744	4600
745	4510
746	4130
747	4530
748	3700
749	4160
750	3830
