Wavelength	S1
nm	CPS
450	860
451	1020
452	720
453	880
454	620
455	730
456	790
457	860
458	840
459	900
460	830
461	660
462	840
463	900
464	860
465	920
466	910
467	660
468	690
469	790
470	580
471	660
472	760
473	660
474	560
475	760
476	580
477	670
478	620
479	890
480	800
481	690
482	580
483	640
484	530
485	640
486	620
487	570
488	590
489	570
490	800
491	570
492	730
493	730
494	660
495	630
496	910
497	1170
498	1180
499	1420
500	1600
501	2050
502	2410
503	2840
504	3550
505	3620
506	3900
507	4800
508	5060
509	5190
510	5450
511	4950
512	4420
513	5010
514	3860
515	3390
516	3600
517	3380
518	2700
519	2230
520	2080
521	1860
522	2050
523	1780
524	1770
525	1800
526	1760
527	2000
528	2100
529	2490
530	3320
531	2960
532	3310
533	4020
534	4030
535	4970
536	5490
537	5890
538	6240
539	7310
540	7940
541	8390
542	9740
543	10640
544	12520
545	13400
546	14870
547	16440
548	17870
549	19190
550	20600
551	22660
552	25520
553	27960
554	30180
555	32220
556	36160
557	37950
558	41450
559	45650
560	48950
561	53310
562	56410
563	59000
564	62930
565	68010
566	72930
567	79820
568	83360
569	87070
570	93870
571	97760
572	102460
573	107980
574	117170
575	120230
576	124040
577	129760
578	132800
579	138250
580	145150
581	150250
582	155430
583	159690
584	164830
585	169860
586	175340
587	175250
588	178040
589	183320
590	187740
591	189870
592	194420
593	195970
594	197810
595	201750
596	200070
597	201580
598	207290
599	208690
600	208010
601	207140
602	211730
603	213580
604	208650
605	208940
606	211490
607	208810
608	208740
609	209260
610	207890
611	206070
612	205280
613	201560
614	202220
615	200790
616	198850
617	195750
618	194400
619	191170
620	188460
621	189550
622	184840
623	180680
624	179790
625	177800
626	175000
627	173420
628	170760
629	167870
630	165250
631	158030
632	157320
633	156750
634	152390
635	148730
636	143830
637	143340
638	140820
639	138440
640	135940
641	135240
642	133030
643	127480
644	129200
645	125450
646	123490
647	120360
648	118560
649	115570
650	113930
651	109280
652	108820
653	108400
654	106690
655	102880
656	100310
657	97680
658	94990
659	95890
660	92920
661	89470
662	88070
663	84310
664	83730
665	80940
666	78850
667	76840
668	73900
669	71490
670	70060
671	68760
672	66880
673	64860
674	61180
675	59990
676	60140
677	56300
678	55910
679	53080
680	52340
681	49100
682	48750
683	46160
684	44950
685	41510
686	43890
687	39390
688	39050
689	38660
690	36290
691	35840
692	34220
693	33960
694	32210
695	31240
696	29780
697	29910
698	26860
699	26530
700	25970
701	24220
702	24630
703	23290
704	23700
705	22580
706	21900
707	19770
708	20160
709	19390
710	17760
711	17510
712	17340
713	16510
714	15520
715	15050
716	15070
717	14240
718	13440
719	12740
720	12530
721	12280
722	11730
723	10910
724	10840
725	10440
726	10460
727	9540
728	9280
729	8840
730	8790
731	7960
732	7800
733	7330
734	6840
735	6770
736	6480
737	6580
738	6190
739	5910
740	5720
741	5820
742	5140
743	5250
744	4770
745	4810
746	5080
747	4840
748	4260
749	4420
750	3660
751	4180
752	3850
753	3810
754	3240
755	3190
756	3250
757	3160
758	3060
759	2960
760	2990
761	2900
762	2870
763	2720
764	2330
765	2720
766	2380
767	2520
768	2340
769	2260
770	2160
771	2250
772	2100
773	1880
774	1960
775	1670
776	1790
777	1780
778	1620
779	1530
780	1390
781	1560
782	1450
783	1510
784	1610
785	1440
786	1570
787	1500
788	1150
789	1220
790	1260
791	1160
792	1090
793	1160
794	1020
795	1150
796	1270
797	1020
798	1120
799	850
800	1100
