Filename:	C:\Users\A2025\Documents\Service_1216\X_Band\HS\CH3205\2nd Batch\VoACAC.par	 Date: 04/16/2025   Time: 01:31

X [G]	Intensity
1000.000000	443.581055
1001.465576	693.581055
1002.931091	373.581055
1004.396667	344.581055
1005.862244	518.581055
1007.327820	509.581055
1008.793335	602.581055
1010.258911	506.581055
1011.724487	658.581055
1013.190063	417.581055
1014.655579	693.581055
1016.121155	400.581055
1017.586731	623.581055
1019.052246	578.581055
1020.517822	469.581055
1021.983398	531.581055
1023.448975	410.581055
1024.914551	582.581055
1026.380127	421.581055
1027.845581	658.581055
1029.311157	591.581055
1030.776733	550.581055
1032.242310	351.581055
1033.707886	401.581055
1035.173462	414.581055
1036.639038	533.581055
1038.104492	378.581055
1039.570068	614.581055
1041.035645	631.581055
1042.501221	312.581055
1043.966797	421.581055
1045.432373	552.581055
1046.897949	566.581055
1048.363403	546.581055
1049.828979	687.581055
1051.294556	562.581055
1052.760132	426.581055
1054.225708	441.581055
1055.691284	619.581055
1057.156860	692.581055
1058.622314	543.581055
1060.087891	592.581055
1061.553467	645.581055
1063.019043	637.581055
1064.484619	978.581055
1065.950195	526.581055
1067.415771	477.581055
1068.881348	285.581055
1070.346802	331.581055
1071.812378	506.581055
1073.277954	590.581055
1074.743530	439.581055
1076.209106	619.581055
1077.674683	654.581055
1079.140259	741.581055
1080.605713	788.581055
1082.071289	530.581055
1083.536865	501.581055
1085.002441	798.581055
1086.468018	506.581055
1087.933594	448.581055
1089.399170	458.581055
1090.864624	712.581055
1092.330200	592.581055
1093.795776	355.581055
1095.261353	499.581055
1096.726929	490.581055
1098.192505	430.581055
1099.658081	722.581055
1101.123535	559.581055
1102.589111	316.581055
1104.054688	467.581055
1105.520264	574.581055
1106.985840	279.581055
1108.451416	539.581055
1109.916992	445.581055
1111.382568	624.581055
1112.848022	635.581055
1114.313599	628.581055
1115.779175	553.581055
1117.244751	644.581055
1118.710327	842.581055
1120.175903	853.581055
1121.641479	569.581055
1123.106934	622.581055
1124.572510	710.581055
1126.038086	422.581055
1127.503662	601.581055
1128.969238	443.581055
1130.434814	467.581055
1131.900391	501.581055
1133.365845	475.581055
1134.831421	469.581055
1136.296997	519.581055
1137.762573	432.581055
1139.228149	562.581055
1140.693726	620.581055
1142.159302	809.581055
1143.624756	490.581055
1145.090332	643.581055
1146.555908	146.581055
1148.021484	313.581055
1149.487061	501.581055
1150.952637	448.581055
1152.418213	477.581055
1153.883789	343.581055
1155.349243	431.581055
1156.814819	241.581055
1158.280396	185.581055
1159.745972	333.581055
1161.211548	384.581055
1162.677124	331.581055
1164.142700	88.581055
1165.608154	353.581055
1167.073730	314.581055
1168.539307	657.581055
1170.004883	344.581055
1171.470459	109.581055
1172.936035	38.581055
1174.401611	360.581055
1175.867065	492.581055
1177.332642	617.581055
1178.798218	460.581055
1180.263794	332.581055
1181.729370	233.581055
1183.194946	528.581055
1184.660522	547.581055
1186.126099	267.581055
1187.591553	402.581055
1189.057129	308.581055
1190.522705	483.581055
1191.988281	672.581055
1193.453857	373.581055
1194.919434	341.581055
1196.385010	528.581055
1197.850464	520.581055
1199.316040	639.581055
1200.781616	1053.581055
1202.247192	767.581055
1203.712769	611.581055
1205.178345	499.581055
1206.643921	754.581055
1208.109375	770.581055
1209.574951	590.581055
1211.040527	302.581055
1212.506104	605.581055
1213.971680	321.581055
1215.437256	580.581055
1216.902832	589.581055
1218.368286	353.581055
1219.833862	649.581055
1221.299438	397.581055
1222.765015	672.581055
1224.230591	714.581055
1225.696167	346.581055
1227.161743	629.581055
1228.627319	461.581055
1230.092773	627.581055
1231.558350	566.581055
1233.023926	531.581055
1234.489502	562.581055
1235.955078	631.581055
1237.420654	485.581055
1238.886230	395.581055
1240.351685	550.581055
1241.817261	426.581055
1243.282837	437.581055
1244.748413	601.581055
1246.213989	645.581055
1247.679565	743.581055
1249.145142	596.581055
1250.610596	752.581055
1252.076172	601.581055
1253.541748	495.581055
1255.007324	371.581055
1256.472900	244.581055
1257.938477	332.581055
1259.404053	176.581055
1260.869507	274.581055
1262.335083	449.581055
1263.800659	371.581055
1265.266235	318.581055
1266.731812	675.581055
1268.197388	719.581055
1269.662964	435.581055
1271.128540	569.581055
1272.593994	547.581055
1274.059570	524.581055
1275.525146	982.581055
1276.990723	456.581055
1278.456299	349.581055
1279.921875	561.581055
1281.387451	460.581055
1282.852905	460.581055
1284.318481	495.581055
1285.784058	621.581055
1287.249634	489.581055
1288.715210	694.581055
1290.180786	627.581055
1291.646362	518.581055
1293.111816	494.581055
1294.577393	569.581055
1296.042969	583.581055
1297.508545	615.581055
1298.974121	315.581055
1300.439697	208.581055
1301.905273	484.581055
1303.370728	716.581055
1304.836304	617.581055
1306.301880	537.581055
1307.767456	762.581055
1309.233032	616.581055
1310.698608	467.581055
1312.164185	431.581055
1313.629761	766.581055
1315.095215	363.581055
1316.560791	349.581055
1318.026367	814.581055
1319.491943	507.581055
1320.957520	242.581055
1322.423096	167.581055
1323.888672	346.581055
1325.354126	314.581055
1326.819702	442.581055
1328.285278	469.581055
1329.750854	345.581055
1331.216431	418.581055
1332.682007	430.581055
1334.147583	537.581055
1335.613037	377.581055
1337.078613	360.581055
1338.544189	712.581055
1340.009766	498.581055
1341.475342	341.581055
1342.940918	324.581055
1344.406494	420.581055
1345.871948	422.581055
1347.337524	266.581055
1348.803101	366.581055
1350.268677	468.581055
1351.734253	534.581055
1353.199829	336.581055
1354.665405	298.581055
1356.130981	210.581055
1357.596436	178.581055
1359.062012	320.581055
1360.527588	535.581055
1361.993164	380.581055
1363.458740	443.581055
1364.924316	201.581055
1366.389893	232.581055
1367.855347	275.581055
1369.320923	356.581055
1370.786499	308.581055
1372.252075	500.581055
1373.717651	459.581055
1375.183228	248.581055
1376.648804	564.581055
1378.114258	559.581055
1379.579834	255.581055
1381.045410	269.581055
1382.510986	323.581055
1383.976563	415.581055
1385.442139	639.581055
1386.907715	454.581055
1388.373169	601.581055
1389.838745	760.581055
1391.304321	736.581055
1392.769897	531.581055
1394.235474	926.581055
1395.701050	772.581055
1397.166626	535.581055
1398.632202	605.581055
1400.097656	577.581055
1401.563232	725.581055
1403.028809	631.581055
1404.494385	743.581055
1405.959961	950.581055
1407.425537	739.581055
1408.891113	498.581055
1410.356567	821.581055
1411.822144	330.581055
1413.287720	611.581055
1414.753296	608.581055
1416.218872	557.581055
1417.684448	477.581055
1419.150024	637.581055
1420.615479	453.581055
1422.081055	646.581055
1423.546631	544.581055
1425.012207	699.581055
1426.477783	409.581055
1427.943359	393.581055
1429.408936	624.581055
1430.874390	480.581055
1432.339966	697.581055
1433.805542	593.581055
1435.271118	578.581055
1436.736694	490.581055
1438.202271	743.581055
1439.667847	463.581055
1441.133423	546.581055
1442.598877	459.581055
1444.064453	545.581055
1445.530029	747.581055
1446.995605	422.581055
1448.461182	352.581055
1449.926758	550.581055
1451.392334	715.581055
1452.857788	605.581055
1454.323364	454.581055
1455.788940	187.581055
1457.254517	688.581055
1458.720093	650.581055
1460.185669	532.581055
1461.651245	403.581055
1463.116699	456.581055
1464.582275	421.581055
1466.047852	491.581055
1467.513428	570.581055
1468.979004	571.581055
1470.444580	318.581055
1471.910156	411.581055
1473.375732	439.581055
1474.841187	778.581055
1476.306763	423.581055
1477.772339	370.581055
1479.237915	569.581055
1480.703491	461.581055
1482.169067	378.581055
1483.634644	703.581055
1485.100098	619.581055
1486.565674	791.581055
1488.031250	585.581055
1489.496826	671.581055
1490.962402	483.581055
1492.427979	788.581055
1493.893555	774.581055
1495.359009	291.581055
1496.824585	655.581055
1498.290161	489.581055
1499.755737	276.581055
1501.221313	178.581055
1502.686890	267.581055
1504.152466	581.581055
1505.617920	442.581055
1507.083496	451.581055
1508.549072	423.581055
1510.014648	534.581055
1511.480225	344.581055
1512.945801	428.581055
1514.411377	539.581055
1515.876953	564.581055
1517.342407	181.581055
1518.807983	619.581055
1520.273560	320.581055
1521.739136	28.581055
1523.204712	429.581055
1524.670288	610.581055
1526.135864	434.581055
1527.601318	444.581055
1529.066895	360.581055
1530.532471	113.581055
1531.998047	351.581055
1533.463623	557.581055
1534.929199	170.581055
1536.394775	483.581055
1537.860229	347.581055
1539.325806	509.581055
1540.791382	385.581055
1542.256958	385.581055
1543.722534	489.581055
1545.188110	244.581055
1546.653687	553.581055
1548.119141	498.581055
1549.584717	316.581055
1551.050293	695.581055
1552.515869	561.581055
1553.981445	295.581055
1555.447021	427.581055
1556.912598	402.581055
1558.378174	406.581055
1559.843628	477.581055
1561.309204	536.581055
1562.774780	147.581055
1564.240356	241.581055
1565.705933	279.581055
1567.171509	627.581055
1568.637085	280.581055
1570.102539	181.581055
1571.568115	324.581055
1573.033691	404.581055
1574.499268	219.581055
1575.964844	509.581055
1577.430420	290.581055
1578.895996	422.581055
1580.361450	353.581055
1581.827026	221.581055
1583.292603	513.581055
1584.758179	211.581055
1586.223755	194.581055
1587.689331	239.581055
1589.154907	363.581055
1590.620361	174.581055
1592.085938	88.581055
1593.551514	211.581055
1595.017090	683.581055
1596.482666	350.581055
1597.948242	186.581055
1599.413818	433.581055
1600.879395	445.581055
1602.344849	348.581055
1603.810425	588.581055
1605.276001	282.581055
1606.741577	274.581055
1608.207153	280.581055
1609.672729	449.581055
1611.138306	374.581055
1612.603760	262.581055
1614.069336	279.581055
1615.534912	674.581055
1617.000488	434.581055
1618.466064	33.581055
1619.931641	249.581055
1621.397217	326.581055
1622.862671	358.581055
1624.328247	289.581055
1625.793823	396.581055
1627.259399	478.581055
1628.724976	439.581055
1630.190552	260.581055
1631.656128	189.581055
1633.121582	488.581055
1634.587158	142.581055
1636.052734	319.581055
1637.518311	121.581055
1638.983887	230.581055
1640.449463	109.581055
1641.915039	111.581055
1643.380615	432.581055
1644.846069	413.581055
1646.311646	416.581055
1647.777222	455.581055
1649.242798	310.581055
1650.708374	383.581055
1652.173950	199.581055
1653.639526	308.581055
1655.104980	380.581055
1656.570557	155.581055
1658.036133	482.581055
1659.501709	292.581055
1660.967285	345.581055
1662.432861	362.581055
1663.898438	406.581055
1665.363892	34.581055
1666.829468	275.581055
1668.295044	305.581055
1669.760620	397.581055
1671.226196	456.581055
1672.691772	385.581055
1674.157349	417.581055
1675.622803	205.581055
1677.088379	152.581055
1678.553955	622.581055
1680.019531	550.581055
1681.485107	613.581055
1682.950684	394.581055
1684.416260	667.581055
1685.881836	549.581055
1687.347290	677.581055
1688.812866	491.581055
1690.278442	458.581055
1691.744019	451.581055
1693.209595	250.581055
1694.675171	303.581055
1696.140747	269.581055
1697.606201	343.581055
1699.071777	179.581055
1700.537354	444.581055
1702.002930	211.581055
1703.468506	555.581055
1704.934082	146.581055
1706.399658	284.581055
1707.865112	388.581055
1709.330688	260.581055
1710.796265	130.581055
1712.261841	309.581055
1713.727417	379.581055
1715.192993	327.581055
1716.658569	407.581055
1718.124023	589.581055
1719.589600	369.581055
1721.055176	348.581055
1722.520752	257.581055
1723.986328	275.581055
1725.451904	384.581055
1726.917480	276.581055
1728.383057	90.581055
1729.848511	495.581055
1731.314087	199.581055
1732.779663	200.581055
1734.245239	133.581055
1735.710815	314.581055
1737.176392	280.581055
1738.641968	180.581055
1740.107422	333.581055
1741.572998	259.581055
1743.038574	461.581055
1744.504150	494.581055
1745.969727	619.581055
1747.435303	435.581055
1748.900879	529.581055
1750.366333	576.581055
1751.831909	510.581055
1753.297485	289.581055
1754.763062	373.581055
1756.228638	268.581055
1757.694214	207.581055
1759.159790	422.581055
1760.625366	267.581055
1762.090820	454.581055
1763.556396	518.581055
1765.021973	336.581055
1766.487549	333.581055
1767.953125	261.581055
1769.418701	216.581055
1770.884277	288.581055
1772.349731	412.581055
1773.815308	616.581055
1775.280884	317.581055
1776.746460	486.581055
1778.212036	418.581055
1779.677612	470.581055
1781.143188	506.581055
1782.608643	596.581055
1784.074219	483.581055
1785.539795	445.581055
1787.005371	313.581055
1788.470947	232.581055
1789.936523	579.581055
1791.402100	435.581055
1792.867554	377.581055
1794.333130	424.581055
1795.798706	399.581055
1797.264282	310.581055
1798.729858	497.581055
1800.195435	320.581055
1801.661011	488.581055
1803.126587	289.581055
1804.592041	403.581055
1806.057617	171.581055
1807.523193	285.581055
1808.988770	240.581055
1810.454346	247.581055
1811.919922	299.581055
1813.385498	331.581055
1814.850952	321.581055
1816.316528	430.581055
1817.782104	141.581055
1819.247681	527.581055
1820.713257	436.581055
1822.178833	417.581055
1823.644409	185.581055
1825.109863	423.581055
1826.575439	359.581055
1828.041016	264.581055
1829.506592	437.581055
1830.972168	285.581055
1832.437744	450.581055
1833.903320	180.581055
1835.368774	238.581055
1836.834351	232.581055
1838.299927	171.581055
1839.765503	190.581055
1841.231079	323.581055
1842.696655	157.581055
1844.162231	221.581055
1845.627808	255.581055
1847.093262	189.581055
1848.558838	229.581055
1850.024414	245.581055
1851.489990	248.581055
1852.955566	417.581055
1854.421143	228.581055
1855.886719	399.581055
1857.352173	417.581055
1858.817749	249.581055
1860.283325	119.581055
1861.748901	56.581055
1863.214478	353.581055
1864.680054	111.581055
1866.145630	275.581055
1867.611084	234.581055
1869.076660	227.581055
1870.542236	108.581055
1872.007813	156.581055
1873.473389	658.581055
1874.938965	76.581055
1876.404541	196.581055
1877.869995	187.581055
1879.335571	452.581055
1880.801147	370.581055
1882.266724	163.581055
1883.732300	186.581055
1885.197876	310.581055
1886.663452	470.581055
1888.129028	337.581055
1889.594482	184.581055
1891.060059	242.581055
1892.525635	581.581055
1893.991211	385.581055
1895.456787	279.581055
1896.922363	188.581055
1898.387939	456.581055
1899.853394	274.581055
1901.318970	120.581055
1902.784546	414.581055
1904.250122	213.581055
1905.715698	268.581055
1907.181274	282.581055
1908.646851	347.581055
1910.112305	416.581055
1911.577881	587.581055
1913.043457	524.581055
1914.509033	527.581055
1915.974609	509.581055
1917.440186	400.581055
1918.905762	261.581055
1920.371216	330.581055
1921.836792	208.581055
1923.302368	404.581055
1924.767944	614.581055
1926.233521	635.581055
1927.699097	630.581055
1929.164673	612.581055
1930.630249	382.581055
1932.095703	368.581055
1933.561279	305.581055
1935.026855	354.581055
1936.492432	251.581055
1937.958008	170.581055
1939.423584	553.581055
1940.889160	608.581055
1942.354614	446.581055
1943.820190	535.581055
1945.285767	528.581055
1946.751343	344.581055
1948.216919	533.581055
1949.682495	585.581055
1951.148071	365.581055
1952.613525	411.581055
1954.079102	515.581055
1955.544678	502.581055
1957.010254	293.581055
1958.475830	241.581055
1959.941406	353.581055
1961.406982	153.581055
1962.872437	118.581055
1964.338013	586.581055
1965.803589	187.581055
1967.269165	225.581055
1968.734741	638.581055
1970.200317	300.581055
1971.665894	509.581055
1973.131470	672.581055
1974.596924	488.581055
1976.062500	665.581055
1977.528076	396.581055
1978.993652	738.581055
1980.459229	536.581055
1981.924805	514.581055
1983.390381	-12.418945
1984.855835	592.581055
1986.321411	545.581055
1987.786987	699.581055
1989.252563	395.581055
1990.718140	496.581055
1992.183716	215.581055
1993.649292	302.581055
1995.114746	429.581055
1996.580322	539.581055
1998.045898	272.581055
1999.511475	519.581055
2000.977051	409.581055
2002.442627	143.581055
2003.908203	637.581055
2005.373657	355.581055
2006.839233	395.581055
2008.304810	147.581055
2009.770386	113.581055
2011.235962	330.581055
2012.701538	227.581055
2014.167114	296.581055
2015.632690	479.581055
2017.098145	425.581055
2018.563721	362.581055
2020.029297	70.581055
2021.494873	496.581055
2022.960449	519.581055
2024.426025	309.581055
2025.891602	714.581055
2027.357056	585.581055
2028.822632	421.581055
2030.288208	528.581055
2031.753784	316.581055
2033.219360	639.581055
2034.684937	458.581055
2036.150513	444.581055
2037.615967	426.581055
2039.081543	240.581055
2040.547119	258.581055
2042.012695	85.581055
2043.478271	308.581055
2044.943848	416.581055
2046.409424	556.581055
2047.874878	172.581055
2049.340576	478.581055
2050.806152	369.581055
2052.271729	336.581055
2053.737061	92.581055
2055.202637	250.581055
2056.668213	97.581055
2058.133789	75.581055
2059.599365	354.581055
2061.064941	294.581055
2062.530518	270.581055
2063.996094	485.581055
2065.461670	121.581055
2066.927246	-23.418945
2068.392822	-30.418945
2069.858398	6.581055
2071.323975	90.581055
2072.789551	506.581055
2074.255127	268.581055
2075.720459	321.581055
2077.186035	199.581055
2078.651611	239.581055
2080.117188	49.581055
2081.582764	223.581055
2083.048340	47.581055
2084.513916	312.581055
2085.979492	56.581055
2087.445068	476.581055
2088.910645	411.581055
2090.376221	110.581055
2091.841797	237.581055
2093.307373	303.581055
2094.772949	327.581055
2096.238281	243.581055
2097.703857	117.581055
2099.169434	233.581055
2100.635010	199.581055
2102.100586	362.581055
2103.566162	596.581055
2105.031738	401.581055
2106.497314	115.581055
2107.962891	41.581055
2109.428467	289.581055
2110.894043	213.581055
2112.359619	362.581055
2113.825195	241.581055
2115.290771	463.581055
2116.756348	443.581055
2118.221680	173.581055
2119.687256	205.581055
2121.152832	275.581055
2122.618408	302.581055
2124.083984	146.581055
2125.549561	198.581055
2127.015137	286.581055
2128.480713	203.581055
2129.946289	151.581055
2131.411865	417.581055
2132.877441	348.581055
2134.343018	231.581055
2135.808594	457.581055
2137.274170	442.581055
2138.739502	273.581055
2140.205078	270.581055
2141.670654	324.581055
2143.136230	233.581055
2144.601807	222.581055
2146.067383	370.581055
2147.532959	131.581055
2148.998535	-151.418945
2150.464111	89.581055
2151.929688	116.581055
2153.395264	194.581055
2154.860840	-119.418945
2156.326416	371.581055
2157.791992	-100.418945
2159.257568	372.581055
2160.722900	138.581055
2162.188477	98.581055
2163.654053	200.581055
2165.119629	23.581055
2166.585205	-10.418945
2168.050781	29.581055
2169.516357	119.581055
2170.981934	117.581055
2172.447510	179.581055
2173.913086	78.581055
2175.378662	384.581055
2176.844238	86.581055
2178.309814	171.581055
2179.775391	590.581055
2181.240723	144.581055
2182.706299	105.581055
2184.171875	307.581055
2185.637451	359.581055
2187.103027	575.581055
2188.568604	446.581055
2190.034180	39.581055
2191.499756	183.581055
2192.965332	36.581055
2194.430908	23.581055
2195.896484	224.581055
2197.362061	82.581055
2198.827637	97.581055
2200.293213	43.581055
2201.758789	243.581055
2203.224121	21.581055
2204.689697	193.581055
2206.155273	-31.418945
2207.620850	-72.418945
2209.086426	354.581055
2210.552002	401.581055
2212.017578	277.581055
2213.483154	372.581055
2214.948730	251.581055
2216.414307	485.581055
2217.879883	508.581055
2219.345459	29.581055
2220.811035	294.581055
2222.276611	355.581055
2223.741943	566.581055
2225.207520	313.581055
2226.673096	336.581055
2228.138672	341.581055
2229.604248	260.581055
2231.069824	376.581055
2232.535400	247.581055
2234.000977	224.581055
2235.466553	250.581055
2236.932129	292.581055
2238.397705	180.581055
2239.863281	176.581055
2241.328857	218.581055
2242.794434	328.581055
2244.260010	421.581055
2245.725342	223.581055
2247.190918	410.581055
2248.656494	164.581055
2250.122070	345.581055
2251.587646	589.581055
2253.053223	273.581055
2254.518799	274.581055
2255.984375	311.581055
2257.449951	274.581055
2258.915527	326.581055
2260.381104	154.581055
2261.846680	508.581055
2263.312256	436.581055
2264.777832	371.581055
2266.243164	259.581055
2267.708740	447.581055
2269.174316	294.581055
2270.639893	317.581055
2272.105469	65.581055
2273.571045	204.581055
2275.036621	133.581055
2276.502197	312.581055
2277.967773	371.581055
2279.433350	164.581055
2280.898926	383.581055
2282.364502	47.581055
2283.830078	-19.418945
2285.295654	33.581055
2286.761230	383.581055
2288.226563	141.581055
2289.692139	401.581055
2291.157715	268.581055
2292.623291	68.581055
2294.088867	398.581055
2295.554443	-105.418945
2297.020020	407.581055
2298.485596	265.581055
2299.951172	234.581055
2301.416748	155.581055
2302.882324	309.581055
2304.347900	389.581055
2305.813477	389.581055
2307.279053	386.581055
2308.744385	144.581055
2310.209961	-33.418945
2311.675537	144.581055
2313.141113	179.581055
2314.606689	238.581055
2316.072266	425.581055
2317.537842	632.581055
2319.003418	495.581055
2320.468994	607.581055
2321.934570	641.581055
2323.400146	339.581055
2324.865723	153.581055
2326.331299	374.581055
2327.796875	253.581055
2329.262451	249.581055
2330.727783	352.581055
2332.193359	291.581055
2333.658936	473.581055
2335.124512	128.581055
2336.590088	338.581055
2338.055664	242.581055
2339.521240	540.581055
2340.986816	405.581055
2342.452393	65.581055
2343.917969	124.581055
2345.383545	315.581055
2346.849121	81.581055
2348.314697	157.581055
2349.780273	227.581055
2351.245605	279.581055
2352.711182	231.581055
2354.176758	166.581055
2355.642334	253.581055
2357.107910	223.581055
2358.573486	490.581055
2360.039063	514.581055
2361.504639	467.581055
2362.970215	344.581055
2364.435791	339.581055
2365.901367	210.581055
2367.366943	339.581055
2368.832520	140.581055
2370.298096	34.581055
2371.763672	308.581055
2373.229004	331.581055
2374.694580	314.581055
2376.160156	429.581055
2377.625732	-34.418945
2379.091309	-14.418945
2380.556885	415.581055
2382.022461	206.581055
2383.488037	-216.418945
2384.953613	-104.418945
2386.419189	158.581055
2387.884766	131.581055
2389.350342	14.581055
2390.815918	-133.418945
2392.281494	172.581055
2393.746826	-40.418945
2395.212402	-49.418945
2396.677979	-76.418945
2398.143555	-184.418945
2399.609131	186.581055
2401.074707	180.581055
2402.540283	207.581055
2404.005859	284.581055
2405.471436	99.581055
2406.937012	238.581055
2408.402588	376.581055
2409.868164	340.581055
2411.333740	-63.418945
2412.799316	-28.418945
2414.264893	133.581055
2415.730225	347.581055
2417.195801	-147.418945
2418.661377	308.581055
2420.126953	-38.418945
2421.592529	119.581055
2423.058105	-84.418945
2424.523682	171.581055
2425.989258	156.581055
2427.454834	261.581055
2428.920410	-33.418945
2430.385986	74.581055
2431.851563	230.581055
2433.317139	-167.418945
2434.782715	-86.418945
2436.248047	16.581055
2437.713623	-151.418945
2439.179199	-88.418945
2440.644775	-368.418945
2442.110352	-17.418945
2443.575928	-220.418945
2445.041504	204.581055
2446.507080	71.581055
2447.972656	204.581055
2449.438232	-29.418945
2450.903809	-214.418945
2452.369385	272.581055
2453.834961	67.581055
2455.300537	289.581055
2456.766113	299.581055
2458.231445	74.581055
2459.697021	64.581055
2461.162598	-140.418945
2462.628174	-182.418945
2464.093750	-146.418945
2465.559326	-86.418945
2467.024902	151.581055
2468.490479	201.581055
2469.956055	498.581055
2471.421631	53.581055
2472.887207	97.581055
2474.352783	275.581055
2475.818359	-68.418945
2477.283936	133.581055
2478.749268	232.581055
2480.214844	-60.418945
2481.680420	129.581055
2483.145996	119.581055
2484.611572	326.581055
2486.077148	226.581055
2487.542725	71.581055
2489.008301	-9.418945
2490.473877	-121.418945
2491.939453	117.581055
2493.405029	157.581055
2494.870605	116.581055
2496.336182	213.581055
2497.801758	157.581055
2499.267334	361.581055
2500.732666	117.581055
2502.198242	311.581055
2503.663818	9.581055
2505.129395	-3.418945
2506.594971	31.581055
2508.060547	83.581055
2509.526123	139.581055
2510.991699	186.581055
2512.457275	-20.418945
2513.922852	32.581055
2515.388428	-95.418945
2516.854004	296.581055
2518.319580	-31.418945
2519.785156	265.581055
2521.250732	323.581055
2522.716064	281.581055
2524.181641	58.581055
2525.647217	364.581055
2527.112793	57.581055
2528.578369	272.581055
2530.043945	152.581055
2531.509521	174.581055
2532.975098	136.581055
2534.440674	142.581055
2535.906250	374.581055
2537.371826	-48.418945
2538.837402	145.581055
2540.302979	337.581055
2541.768555	162.581055
2543.233887	26.581055
2544.699463	94.581055
2546.165039	216.581055
2547.630615	55.581055
2549.096191	148.581055
2550.561768	157.581055
2552.027344	415.581055
2553.492920	107.581055
2554.958496	148.581055
2556.424072	54.581055
2557.889648	118.581055
2559.355225	306.581055
2560.820801	304.581055
2562.286377	199.581055
2563.751953	42.581055
2565.217285	-37.418945
2566.682861	20.581055
2568.148438	307.581055
2569.614014	262.581055
2571.079590	138.581055
2572.545166	290.581055
2574.010742	115.581055
2575.476318	-84.418945
2576.941895	-122.418945
2578.407471	39.581055
2579.873047	270.581055
2581.338623	133.581055
2582.804199	201.581055
2584.269775	119.581055
2585.735107	120.581055
2587.200684	243.581055
2588.666260	341.581055
2590.131836	292.581055
2591.597412	105.581055
2593.062988	168.581055
2594.528564	349.581055
2595.994141	229.581055
2597.459717	243.581055
2598.925293	343.581055
2600.390869	651.581055
2601.856445	106.581055
2603.322021	63.581055
2604.787598	59.581055
2606.253174	-122.418945
2607.718506	-107.418945
2609.184082	140.581055
2610.649658	124.581055
2612.115234	115.581055
2613.580811	116.581055
2615.046387	51.581055
2616.511963	74.581055
2617.977539	111.581055
2619.443115	126.581055
2620.908691	142.581055
2622.374268	23.581055
2623.839844	-140.418945
2625.305420	171.581055
2626.770996	-114.418945
2628.236328	181.581055
2629.701904	103.581055
2631.167480	199.581055
2632.633057	119.581055
2634.098633	350.581055
2635.564209	450.581055
2637.029785	209.581055
2638.495361	222.581055
2639.960938	28.581055
2641.426514	23.581055
2642.892090	-41.418945
2644.357666	32.581055
2645.823242	12.581055
2647.288818	203.581055
2648.754395	281.581055
2650.219727	53.581055
2651.685303	56.581055
2653.150879	-97.418945
2654.616455	41.581055
2656.082031	35.581055
2657.547607	57.581055
2659.013184	64.581055
2660.478760	282.581055
2661.944336	-6.418945
2663.409912	-181.418945
2664.875488	132.581055
2666.341064	-94.418945
2667.806641	-180.418945
2669.272217	-67.418945
2670.737549	-70.418945
2672.203125	-300.418945
2673.668701	-72.418945
2675.134277	-25.418945
2676.599854	156.581055
2678.065430	61.581055
2679.531006	130.581055
2680.996582	-60.418945
2682.462158	279.581055
2683.927734	48.581055
2685.393311	69.581055
2686.858887	85.581055
2688.324463	-102.418945
2689.790039	53.581055
2691.255615	-165.418945
2692.720947	-70.418945
2694.186523	162.581055
2695.652100	128.581055
2697.117676	-59.418945
2698.583252	-184.418945
2700.048828	3.581055
2701.514404	-39.418945
2702.979980	196.581055
2704.445557	-166.418945
2705.911133	-22.418945
2707.376709	105.581055
2708.842285	-62.418945
2710.307861	8.581055
2711.773438	266.581055
2713.238770	161.581055
2714.704346	303.581055
2716.169922	162.581055
2717.635498	142.581055
2719.101074	120.581055
2720.566650	276.581055
2722.032227	184.581055
2723.497803	303.581055
2724.963379	382.581055
2726.428955	264.581055
2727.894531	371.581055
2729.360107	303.581055
2730.825684	312.581055
2732.291260	166.581055
2733.756836	181.581055
2735.222168	259.581055
2736.687744	249.581055
2738.153320	260.581055
2739.618896	304.581055
2741.084473	114.581055
2742.550049	400.581055
2744.015625	199.581055
2745.481201	71.581055
2746.946777	1.581055
2748.412354	154.581055
2749.877930	269.581055
2751.343506	100.581055
2752.809082	332.581055
2754.274658	-24.418945
2755.739990	163.581055
2757.205566	213.581055
2758.671143	217.581055
2760.136719	175.581055
2761.602295	-29.418945
2763.067871	83.581055
2764.533447	152.581055
2765.999023	300.581055
2767.464600	360.581055
2768.930176	211.581055
2770.395752	210.581055
2771.861328	220.581055
2773.326904	100.581055
2774.792480	-186.418945
2776.258057	208.581055
2777.723389	198.581055
2779.188965	184.581055
2780.654541	144.581055
2782.120117	202.581055
2783.585693	120.581055
2785.051270	246.581055
2786.516846	123.581055
2787.982422	165.581055
2789.447998	100.581055
2790.913574	122.581055
2792.379150	-71.418945
2793.844727	255.581055
2795.310303	525.581055
2796.775879	398.581055
2798.241211	258.581055
2799.706787	321.581055
2801.172363	284.581055
2802.637939	626.581055
2804.103516	174.581055
2805.569092	414.581055
2807.034668	529.581055
2808.500244	389.581055
2809.965820	501.581055
2811.431396	507.581055
2812.896973	559.581055
2814.362549	430.581055
2815.828125	298.581055
2817.293701	487.581055
2818.759277	174.581055
2820.224609	326.581055
2821.690186	488.581055
2823.155762	241.581055
2824.621338	533.581055
2826.086914	522.581055
2827.552490	398.581055
2829.018066	519.581055
2830.483643	601.581055
2831.949219	764.581055
2833.414795	366.581055
2834.880371	496.581055
2836.345947	582.581055
2837.811523	551.581055
2839.277100	463.581055
2840.742432	439.581055
2842.208008	366.581055
2843.673584	428.581055
2845.139160	533.581055
2846.604736	314.581055
2848.070313	504.581055
2849.535889	529.581055
2851.001465	759.581055
2852.467041	984.581055
2853.932617	807.581055
2855.398193	521.581055
2856.863770	447.581055
2858.329346	649.581055
2859.794922	615.581055
2861.260498	586.581055
2862.725830	658.581055
2864.191406	583.581055
2865.656982	625.581055
2867.122559	738.581055
2868.588135	825.581055
2870.053711	820.581055
2871.519287	921.581055
2872.984863	675.581055
2874.450439	612.581055
2875.916016	647.581055
2877.381592	626.581055
2878.847168	527.581055
2880.312744	824.581055
2881.778320	468.581055
2883.243652	904.581055
2884.709229	742.581055
2886.174805	794.581055
2887.640381	649.581055
2889.105957	861.581055
2890.571533	665.581055
2892.037109	529.581055
2893.502686	605.581055
2894.968262	795.581055
2896.433838	894.581055
2897.899414	907.581055
2899.364990	836.581055
2900.830566	798.581055
2902.296143	830.581055
2903.761719	564.581055
2905.227051	809.581055
2906.692627	818.581055
2908.158203	801.581055
2909.623779	950.581055
2911.089355	999.581055
2912.554932	1354.581055
2914.020508	1141.581055
2915.486084	1114.581055
2916.951660	1295.581055
2918.417236	1316.581055
2919.882813	1370.581055
2921.348389	1073.581055
2922.813965	1529.581055
2924.279541	1387.581055
2925.744873	1427.581055
2927.210449	1417.581055
2928.676025	1277.581055
2930.141602	1382.581055
2931.607178	1446.581055
2933.072754	1198.581055
2934.538330	1532.581055
2936.003906	1468.581055
2937.469482	1585.581055
2938.935059	1421.581055
2940.400635	1913.581055
2941.866211	1926.581055
2943.331787	2076.581055
2944.797363	1775.581055
2946.262939	2148.581055
2947.728271	2320.581055
2949.193848	2200.581055
2950.659424	2278.581055
2952.125000	2435.581055
2953.590576	2590.581055
2955.056152	2577.581055
2956.521729	2844.581055
2957.987305	2945.581055
2959.452881	3111.581055
2960.918457	3222.581055
2962.384033	3216.581055
2963.849609	3394.581055
2965.315186	3520.581055
2966.780762	3739.581055
2968.246094	4099.581055
2969.711670	4222.581055
2971.177246	4341.581055
2972.642822	4798.581055
2974.108398	4982.581055
2975.573975	5311.581055
2977.039551	5585.581055
2978.505127	5811.581055
2979.970703	6050.581055
2981.436279	6708.581055
2982.901855	7148.581055
2984.367432	7465.581055
2985.833008	7999.581055
2987.298584	8559.581055
2988.764160	9329.581055
2990.229492	9686.581055
2991.695068	10581.581055
2993.160645	11309.581055
2994.626221	12017.581055
2996.091797	12934.581055
2997.557373	13936.581055
2999.022949	15157.581055
3000.488525	16677.582031
3001.954102	17798.582031
3003.419678	19504.582031
3004.885254	21456.582031
3006.350830	23600.582031
3007.816406	26090.582031
3009.281982	28712.582031
3010.747314	31642.582031
3012.212891	35483.582031
3013.678467	39447.582031
3015.144043	44411.582031
3016.609619	49944.582031
3018.075195	56618.582031
3019.540771	64109.582031
3021.006348	73133.578125
3022.471924	84115.578125
3023.937500	96962.578125
3025.403076	112687.578125
3026.868652	131241.578125
3028.334229	154092.578125
3029.799805	181493.578125
3031.265381	214264.578125
3032.730713	254255.578125
3034.196289	300936.593750
3035.661865	355002.593750
3037.127441	413504.593750
3038.593018	471695.593750
3040.058594	518525.593750
3041.524170	536551.562500
3042.989746	504475.593750
3044.455322	404127.593750
3045.920898	232749.578125
3047.386475	12941.581055
3048.852051	-211506.421875
3050.317627	-392663.406250
3051.783203	-504515.406250
3053.248535	-544723.437500
3054.714111	-530132.437500
3056.179688	-483939.406250
3057.645264	-424262.406250
3059.110840	-362892.406250
3060.576416	-306114.406250
3062.041992	-256391.421875
3063.507568	-214893.421875
3064.973145	-179802.421875
3066.438721	-150668.421875
3067.904297	-126944.421875
3069.369873	-107162.421875
3070.835449	-90898.421875
3072.301025	-77767.421875
3073.766602	-66255.421875
3075.231934	-56568.417969
3076.697510	-48480.417969
3078.163086	-41622.417969
3079.628662	-35742.417969
3081.094238	-30804.417969
3082.559814	-25818.417969
3084.025391	-22078.417969
3085.490967	-18692.417969
3086.956543	-15289.418945
3088.422119	-12560.418945
3089.887695	-9569.418945
3091.353271	-7054.418945
3092.818848	-4740.418945
3094.284424	-2565.418945
3095.749756	-274.418945
3097.215332	1661.581055
3098.680908	4224.581055
3100.146484	6416.581055
3101.612061	8997.581055
3103.077637	11338.581055
3104.543213	14147.581055
3106.008789	17056.582031
3107.474365	20396.582031
3108.939941	24200.582031
3110.405518	28269.582031
3111.871094	32840.582031
3113.336670	38309.582031
3114.802246	44435.582031
3116.267822	51660.582031
3117.733154	60159.582031
3119.198730	70763.578125
3120.664307	83455.578125
3122.129883	98333.578125
3123.595459	116554.578125
3125.061035	139076.578125
3126.526611	167225.578125
3127.992188	202456.578125
3129.457764	245387.578125
3130.923340	299664.593750
3132.388916	365555.593750
3133.854492	444382.593750
3135.320068	533161.562500
3136.785645	622578.562500
3138.251221	691960.562500
3139.716553	706050.562500
3141.182129	622426.562500
3142.647705	416098.593750
3144.113281	106324.578125
3145.578857	-234311.421875
3147.044434	-514775.406250
3148.510010	-678436.437500
3149.975586	-722461.437500
3151.441162	-682467.437500
3152.906738	-599711.437500
3154.372314	-505848.406250
3155.837891	-417455.406250
3157.303467	-341248.406250
3158.769043	-278118.406250
3160.234375	-227011.421875
3161.699951	-186607.421875
3163.165527	-154208.421875
3164.631104	-128286.421875
3166.096680	-106866.421875
3167.562256	-89838.421875
3169.027832	-76058.421875
3170.493408	-64377.417969
3171.958984	-54855.417969
3173.424561	-46628.417969
3174.890137	-39682.417969
3176.355713	-33632.417969
3177.821289	-28386.417969
3179.286865	-23768.417969
3180.752441	-19616.417969
3182.217773	-16009.418945
3183.683350	-13481.418945
3185.148926	-12533.418945
3186.614502	-11948.418945
3188.080078	-10806.418945
3189.545654	-8708.418945
3191.011230	-6612.418945
3192.476807	-4090.418945
3193.942383	-1514.418945
3195.407959	566.581055
3196.873535	2704.581055
3198.339111	4646.581055
3199.804688	6794.581055
3201.270264	8995.581055
3202.735596	11062.581055
3204.201172	13623.581055
3205.666748	16256.581055
3207.132324	18753.582031
3208.597900	22164.582031
3210.063477	25874.582031
3211.529053	29946.582031
3212.994629	34795.582031
3214.460205	40581.582031
3215.925781	47316.582031
3217.391357	55426.582031
3218.856934	65071.582031
3220.322510	76113.578125
3221.788086	88403.578125
3223.253662	102837.578125
3224.718994	121149.578125
3226.184570	144304.578125
3227.650146	175513.578125
3229.115723	215403.578125
3230.581299	266074.593750
3232.046875	329180.593750
3233.512451	408298.593750
3234.978027	503510.593750
3236.443604	611782.562500
3237.909180	719356.562500
3239.374756	795260.562500
3240.840332	790837.562500
3242.305908	651049.562500
3243.771484	356144.593750
3245.236816	-41525.417969
3246.702393	-428196.406250
3248.167969	-697206.437500
3249.633545	-809833.437500
3251.099121	-794285.437500
3252.564697	-705949.437500
3254.030273	-593688.437500
3255.495850	-484711.406250
3256.961426	-390453.406250
3258.427002	-313503.406250
3259.892578	-253040.421875
3261.358154	-206360.421875
3262.823730	-170806.421875
3264.289307	-142599.421875
3265.754883	-118950.421875
3267.220215	-99521.421875
3268.685791	-83089.421875
3270.151367	-69957.421875
3271.616943	-59042.417969
3273.082520	-50423.417969
3274.548096	-43325.417969
3276.013672	-36886.417969
3277.479248	-31832.417969
3278.944824	-27227.417969
3280.410400	-23376.417969
3281.875977	-19784.417969
3283.341553	-16837.417969
3284.807129	-13876.418945
3286.272705	-11611.418945
3287.738037	-9632.418945
3289.203613	-7462.418945
3290.669189	-5313.418945
3292.134766	-3267.418945
3293.600342	-1077.418945
3295.065918	1434.581055
3296.531494	3542.581055
3297.997070	5396.581055
3299.462646	5869.581055
3300.928223	5238.581055
3302.393799	5051.581055
3303.859375	5680.581055
3305.324951	7389.581055
3306.790527	10027.581055
3308.256104	13136.581055
3309.721436	16282.581055
3311.187012	19313.582031
3312.652588	22508.582031
3314.118164	26215.582031
3315.583740	30307.582031
3317.049316	35377.582031
3318.514893	40817.582031
3319.980469	47314.582031
3321.446045	55180.582031
3322.911621	64128.582031
3324.377197	75576.578125
3325.842773	88857.578125
3327.308350	105506.578125
3328.773926	125959.578125
3330.239258	151454.578125
3331.704834	182970.578125
3333.170410	223553.578125
3334.635986	274307.593750
3336.101563	337601.593750
3337.567139	415260.593750
3339.032715	506658.593750
3340.498291	607078.562500
3341.963867	702907.562500
3343.429443	765277.562500
3344.895020	745678.562500
3346.360596	596935.562500
3347.826172	308526.593750
3349.291748	-67500.421875
3350.757324	-425740.406250
3352.222656	-672043.437500
3353.688232	-773769.437500
3355.153809	-758799.437500
3356.619385	-678052.437500
3358.084961	-574357.437500
3359.550537	-472421.406250
3361.016113	-383582.406250
3362.481689	-310698.406250
3363.947266	-252341.421875
3365.412842	-205532.421875
3366.878418	-168249.421875
3368.343994	-139185.421875
3369.809570	-115485.421875
3371.275146	-96277.421875
3372.740479	-80476.421875
3374.206055	-67418.421875
3375.671631	-56911.417969
3377.137207	-48046.417969
3378.602783	-41686.417969
3380.068359	-37308.417969
3381.533936	-34233.417969
3382.999512	-31220.417969
3384.465088	-27365.417969
3385.930664	-23868.417969
3387.396240	-19973.417969
3388.861816	-16747.417969
3390.327393	-14113.418945
3391.792969	-11586.418945
3393.258545	-9715.418945
3394.723877	-7944.418945
3396.189453	-5965.418945
3397.655029	-4425.418945
3399.120605	-2928.418945
3400.586182	-1490.418945
3402.051758	84.581055
3403.517334	1235.581055
3404.982910	3095.581055
3406.448486	4726.581055
3407.914063	6520.581055
3409.379639	8279.581055
3410.845215	10296.581055
3412.310791	12308.581055
3413.776367	14656.581055
3415.241699	17402.582031
3416.707275	20480.582031
3418.172852	22943.582031
3419.638428	25347.582031
3421.104004	27230.582031
3422.569580	29540.582031
3424.035156	33588.582031
3425.500732	39290.582031
3426.966309	46266.582031
3428.431885	54139.582031
3429.897461	63658.582031
3431.363037	74603.578125
3432.828613	87823.578125
3434.294189	103915.578125
3435.759766	123012.578125
3437.225098	146589.578125
3438.690674	175530.578125
3440.156250	211287.578125
3441.621826	254703.578125
3443.087402	308412.593750
3444.552979	372252.593750
3446.018555	445207.593750
3447.484131	523142.593750
3448.949707	593784.562500
3450.415283	635846.562500
3451.880859	618709.562500
3453.346436	512129.593750
3454.812012	305599.593750
3456.277588	28820.582031
3457.742920	-255890.421875
3459.208496	-480568.406250
3460.674072	-608389.437500
3462.139648	-642612.437500
3463.605225	-610653.437500
3465.070801	-543442.437500
3466.536377	-464736.406250
3468.001953	-389313.406250
3469.467529	-322931.406250
3470.933105	-266561.406250
3472.398682	-220937.421875
3473.864258	-183434.421875
3475.329834	-153024.421875
3476.795410	-128532.421875
3478.260986	-108483.421875
3479.726318	-92148.421875
3481.191895	-78620.421875
3482.657471	-67336.421875
3484.123047	-58056.417969
3485.588623	-50282.417969
3487.054199	-43348.417969
3488.519775	-37860.417969
3489.985352	-32763.417969
3491.450928	-28336.417969
3492.916504	-24458.417969
3494.382080	-21189.417969
3495.847656	-17975.417969
3497.313232	-14841.418945
3498.778809	-12286.418945
3500.244141	-10382.418945
3501.709717	-9364.418945
3503.175293	-8570.418945
3504.640869	-8342.418945
3506.106445	-7373.418945
3507.572021	-6292.418945
3509.037598	-4120.418945
3510.503174	-2492.418945
3511.968750	-946.418945
3513.434326	935.581055
3514.899902	2905.581055
3516.365479	4449.581055
3517.831055	6021.581055
3519.296631	7927.581055
3520.762207	9840.581055
3522.227539	11880.581055
3523.693115	13981.581055
3525.158691	16366.581055
3526.624268	18923.582031
3528.089844	21694.582031
3529.555420	25025.582031
3531.020996	28596.582031
3532.486572	32637.582031
3533.952148	37357.582031
3535.417725	42668.582031
3536.883301	49345.582031
3538.348877	56769.582031
3539.814453	65609.578125
3541.280029	75812.578125
3542.745361	86843.578125
3544.210938	100365.578125
3545.676514	116058.578125
3547.142090	134611.578125
3548.607666	158036.578125
3550.073242	186427.578125
3551.538818	220076.578125
3553.004395	259774.578125
3554.469971	304999.593750
3555.935547	354116.593750
3557.401123	404084.593750
3558.866699	447252.593750
3560.332275	472717.593750
3561.797852	464983.593750
3563.263428	407924.593750
3564.728760	294181.593750
3566.194336	129574.578125
3567.659912	-59482.417969
3569.125488	-237753.421875
3570.591064	-374086.406250
3572.056641	-452559.406250
3573.522217	-477845.406250
3574.987793	-463362.406250
3576.453369	-424793.406250
3577.918945	-376197.406250
3579.384521	-325934.406250
3580.850098	-278371.406250
3582.315674	-236514.421875
3583.781250	-200875.421875
3585.246582	-170639.421875
3586.712158	-145871.421875
3588.177734	-125268.421875
3589.643311	-108303.421875
3591.108887	-93605.421875
3592.574463	-81551.421875
3594.040039	-70734.421875
3595.505615	-61576.417969
3596.971191	-53383.417969
3598.436768	-46723.417969
3599.902344	-40811.417969
3601.367920	-35912.417969
3602.833496	-31499.417969
3604.299072	-27783.417969
3605.764648	-23959.417969
3607.229980	-21045.417969
3608.695557	-18396.417969
3610.161133	-15881.418945
3611.626709	-13842.418945
3613.092285	-11560.418945
3614.557861	-9894.418945
3616.023438	-7920.418945
3617.489014	-6196.418945
3618.954590	-4400.418945
3620.420166	-2856.418945
3621.885742	-1264.418945
3623.351318	512.581055
3624.816895	2087.581055
3626.282471	3616.581055
3627.747803	4812.581055
3629.213379	5867.581055
3630.678955	7302.581055
3632.144531	8121.581055
3633.610107	9694.581055
3635.075684	11082.581055
3636.541260	13225.581055
3638.006836	15677.581055
3639.472412	18167.582031
3640.937988	21523.582031
3642.403564	24759.582031
3643.869141	27902.582031
3645.334717	32272.582031
3646.800293	36586.582031
3648.265869	41507.582031
3649.731201	47116.582031
3651.196777	53658.582031
3652.662354	60930.582031
3654.127930	69524.578125
3655.593506	79731.578125
3657.059082	91170.578125
3658.524658	104401.578125
3659.990234	119647.578125
3661.455811	137489.578125
3662.921387	158325.578125
3664.386963	181645.578125
3665.852539	207590.578125
3667.318115	235970.578125
3668.783691	265887.593750
3670.249023	294131.593750
3671.714600	318062.593750
3673.180176	332530.593750
3674.645752	330478.593750
3676.111328	305689.593750
3677.576904	252605.578125
3679.042480	170731.578125
3680.508057	66954.578125
3681.973633	-46992.417969
3683.439209	-154108.421875
3684.904785	-241389.421875
3686.370361	-300810.406250
3687.835938	-330922.406250
3689.301514	-336586.406250
3690.767090	-324709.406250
3692.232422	-301804.406250
3693.697998	-273382.406250
3695.163574	-243898.421875
3696.629150	-214704.421875
3698.094727	-188176.421875
3699.560303	-164188.421875
3701.025879	-143096.421875
3702.491455	-124853.421875
3703.957031	-108884.421875
3705.422607	-95315.421875
3706.888184	-83542.421875
3708.353760	-73456.421875
3709.819336	-64461.417969
3711.284912	-56938.417969
3712.750488	-50227.417969
3714.215820	-44224.417969
3715.681396	-39091.417969
3717.146973	-34592.417969
3718.612549	-30672.417969
3720.078125	-27178.417969
3721.543701	-24200.417969
3723.009277	-21027.417969
3724.474854	-18549.417969
3725.940430	-16427.417969
3727.406006	-14127.418945
3728.871582	-12329.418945
3730.337158	-10561.418945
3731.802734	-9038.418945
3733.268311	-7131.418945
3734.733643	-5505.418945
3736.199219	-3891.418945
3737.664795	-2589.418945
3739.130371	-789.418945
3740.595947	763.581055
3742.061523	1970.581055
3743.527100	3825.581055
3744.992676	5404.581055
3746.458252	6944.581055
3747.923828	8557.581055
3749.389404	10219.581055
3750.854980	12207.581055
3752.320557	14219.581055
3753.786133	16057.581055
3755.251709	18361.582031
3756.717041	20943.582031
3758.182617	24035.582031
3759.648193	26847.582031
3761.113770	30651.582031
3762.579346	34312.582031
3764.044922	38567.582031
3765.510498	43197.582031
3766.976074	48353.582031
3768.441650	54456.582031
3769.907227	61279.582031
3771.372803	68989.578125
3772.838379	77860.578125
3774.303955	87468.578125
3775.769531	98358.578125
3777.234863	110808.578125
3778.700439	124319.578125
3780.166016	139120.578125
3781.631592	155268.578125
3783.097168	172259.578125
3784.562744	188801.578125
3786.028320	204646.578125
3787.493896	218129.578125
3788.959473	226519.578125
3790.425049	227390.578125
3791.890625	218339.578125
3793.356201	196353.578125
3794.821777	160654.578125
3796.287354	111040.578125
3797.752930	50564.582031
3799.218262	-14700.418945
3800.683838	-79181.421875
3802.149414	-136117.421875
3803.614990	-181154.421875
3805.080566	-212187.421875
3806.546143	-229309.421875
3808.011719	-234063.421875
3809.477295	-230397.421875
3810.942871	-219759.421875
3812.408447	-205329.421875
3813.874023	-188655.421875
3815.339600	-171668.421875
3816.805176	-154936.421875
3818.270752	-139268.421875
3819.736084	-124762.421875
3821.201660	-111558.421875
3822.667236	-99832.421875
3824.132813	-89443.421875
3825.598389	-80160.421875
3827.063965	-72240.421875
3828.529541	-64884.417969
3829.995117	-58434.417969
3831.460693	-53031.417969
3832.926270	-48168.417969
3834.391846	-43576.417969
3835.857422	-39938.417969
3837.322998	-36278.417969
3838.788574	-33455.417969
3840.254150	-30622.417969
3841.719482	-27988.417969
3843.185059	-25781.417969
3844.650635	-23862.417969
3846.116211	-21863.417969
3847.581787	-20449.417969
3849.047363	-19070.417969
3850.512939	-17426.417969
3851.978516	-16480.417969
3853.444092	-15306.418945
3854.909668	-14480.418945
3856.375244	-13792.418945
3857.840820	-12743.418945
3859.306396	-12173.418945
3860.771973	-11328.418945
3862.237305	-10439.418945
3863.702881	-9878.418945
3865.168457	-9385.418945
3866.634033	-9106.418945
3868.099609	-8637.418945
3869.565186	-8175.418945
3871.030762	-7941.418945
3872.496338	-7006.418945
3873.961914	-6986.418945
3875.427490	-6827.418945
3876.893066	-6341.418945
3878.358643	-5873.418945
3879.824219	-5786.418945
3881.289795	-5623.418945
3882.755371	-5372.418945
3884.220703	-5225.418945
3885.686279	-5003.418945
3887.151855	-4736.418945
3888.617432	-4499.418945
3890.083008	-4414.418945
3891.548584	-4423.418945
3893.014160	-3907.418945
3894.479736	-3828.418945
3895.945313	-3948.418945
3897.410889	-3987.418945
3898.876465	-3366.418945
3900.342041	-3685.418945
3901.807617	-3399.418945
3903.273193	-3237.418945
3904.738525	-3118.418945
3906.204102	-3260.418945
3907.669678	-3067.418945
3909.135254	-2846.418945
3910.600830	-2877.418945
3912.066406	-2690.418945
3913.531982	-2456.418945
3914.997559	-2619.418945
3916.463135	-2783.418945
3917.928711	-2600.418945
3919.394287	-2696.418945
3920.859863	-2346.418945
3922.325439	-2287.418945
3923.791016	-2355.418945
3925.256592	-2148.418945
3926.721924	-2029.418945
3928.187500	-2031.418945
3929.653076	-2207.418945
3931.118652	-2374.418945
3932.584229	-2210.418945
3934.049805	-2209.418945
3935.515381	-2269.418945
3936.980957	-1994.418945
3938.446533	-2194.418945
3939.912109	-2080.418945
3941.377686	-2065.418945
3942.843262	-2025.418945
3944.308838	-2188.418945
3945.774414	-2171.418945
3947.239746	-2055.418945
3948.705322	-2003.418945
3950.170898	-1909.418945
3951.636475	-1903.418945
3953.102051	-1985.418945
3954.567627	-1924.418945
3956.033203	-1895.418945
3957.498779	-1845.418945
3958.964355	-1736.418945
3960.429932	-1650.418945
3961.895508	-1628.418945
3963.361084	-1704.418945
3964.826660	-1888.418945
3966.292236	-1530.418945
3967.757813	-1365.418945
3969.223145	-1345.418945
3970.688721	-1548.418945
3972.154297	-1699.418945
3973.619873	-1376.418945
3975.085449	-1371.418945
3976.551025	-1428.418945
3978.016602	-1249.418945
3979.482178	-1480.418945
3980.947754	-1240.418945
3982.413330	-1158.418945
3983.878906	-1400.418945
3985.344482	-1202.418945
3986.810059	-1464.418945
3988.275635	-1248.418945
3989.740967	-1147.418945
3991.206543	-1297.418945
3992.672119	-1179.418945
3994.137695	-1367.418945
3995.603271	-1288.418945
3997.068848	-1327.418945
3998.534424	-1264.418945
4000.000000	-1179.418945




